framboise 1
Integration time [ms]: 100,000
Averaging Nr. [scans]: 5
Smoothing Nr. [pixels]: 2
Data measured with spectrometer [name]: 1004063U1
Wave   ;Sample   ;Dark     ;Reference;Scope Corrected for Dark
[nm]   ;[counts] ;[counts] ;[counts] 

 250,00;  -23,005;    1,155;   -0,879;-24,16013
 251,00;  -16,706;   -5,473;   -4,071;-11,23293
 252,00;  -12,526;   -5,700;  -13,518;-6,82559
 253,00;  -12,138;  -11,454;  -11,730;-0,68348
 254,00;  -23,432;   -8,924;   -5,740;-14,50777
 255,00;    2,759;   -0,310;   -2,467; 3,06833
 256,00;    7,755;    3,751;   -9,539; 4,00469
 257,00;   11,638;    3,313;  -17,700; 8,32428
 258,00;  -23,066;   -6,903;  -18,382;-16,16351
 259,00;  -18,179;   -7,558;  -13,872;-10,62095
 260,00;    8,077;   -7,865;  -10,321;15,94128
 261,00;   15,629;   -5,514;   -6,236;21,14323
 262,00;   -0,427;  -10,181;   -8,434; 9,75464
 263,00;  -11,744;  -11,087;   -6,402;-0,65664
 264,00;    4,171;  -12,614;  -14,735;16,78425
 265,00;   12,349;   -8,991;   -7,563;21,33981
 266,00;    2,806;   -2,911;   -4,523; 5,71717
 267,00;   -2,881;    3,115;    8,190;-5,99587
 268,00;    1,584;    8,112;    0,644;-6,52804
 269,00;    5,440;    1,600;   -8,071; 3,83992
 270,00;   -1,068;   -5,748;  -17,941; 4,67952
 271,00;  -12,092;   -9,632;  -16,548;-2,46020
 272,00;  -24,059;   -8,729;  -13,174;-15,33032
 273,00;  -35,894;   -5,842;  -11,028;-30,05186
 274,00;  -39,616;  -10,339;   -9,157;-29,27679
 275,00;  -49,631;  -11,921;  -21,657;-37,71034
 276,00;  -47,328;   -9,941;  -25,371;-37,38752
 277,00;  -51,204;   -4,913;  -31,594;-46,29056
 278,00;   -9,172;   -0,596;  -14,943;-8,57616
 279,00;    6,975;   -2,004;   -9,291; 8,97941
 280,00;   54,209;   -3,104;   -5,825;57,31293
 281,00;   23,353;   -4,370;  -12,456;27,72281
 282,00;    8,041;   -5,328;  -10,092;13,36971
 283,00;  -17,348;   -8,331;  -11,017;-9,01721
 284,00;   -6,962;   -6,944;   -4,941;-0,01838
 285,00;  -11,662;   -6,270;   -9,413;-5,39187
 286,00;  -43,524;   -2,924;   -9,503;-40,60078
 287,00;  -52,405;   -9,454;  -18,804;-42,95130
 288,00;   -8,572;   -6,622;  -22,842;-1,94959
 289,00;   24,116;   -9,579;  -25,063;33,69510
 290,00;   33,395;   -7,330;  -20,309;40,72519
 291,00;    9,865;  -13,118;  -19,543;22,98285
 292,00;  -12,881;  -15,791;  -18,566; 2,90942
 293,00;  -27,582;   -9,037;  -14,631;-18,54567
 294,00;  -27,260;   -3,295;  -15,917;-23,96506
 295,00;  -12,470;    3,589;  -15,663;-16,05980
 296,00;   -2,652;   -4,521;  -18,949; 1,86873
 297,00;  -19,581;  -11,259;  -12,794;-8,32171
 298,00;   -1,117;  -11,440;  -14,091;10,32299
 299,00;    2,433;   -9,975;  -10,607;12,40844
 300,00;   10,481;  -10,197;  -10,596;20,67790
 301,00;  -16,138;  -10,798;   -6,493;-5,34012
 302,00;  -21,488;   -8,014;   -8,503;-13,47408
 303,00;   -9,415;   -8,839;  -12,890;-0,57572
 304,00;    2,200;   -5,897;  -14,804; 8,09734
 305,00;   -6,376;   -4,705;  -23,512;-1,67119
 306,00;  -21,394;    1,483;  -24,246;-22,87669
 307,00;  -24,789;   -7,773;  -29,575;-17,01568
 308,00;  -28,754;   -7,441;  -25,326;-21,31304
 309,00;   -6,687;   -2,434;  -16,321;-4,25262
 310,00;  -24,350;    3,502;   -0,810;-27,85200
 311,00;  -21,131;   -3,304;    3,528;-17,82682
 312,00;  -29,076;  -14,156;   -0,837;-14,92002
 313,00;    0,788;  -13,360;   -7,669;14,14813
 314,00;   -0,624;   -6,873;   -8,913; 6,24949
 315,00;  -21,486;    1,059;   -6,529;-22,54504
 316,00;  -23,766;   -8,227;    1,692;-15,53965
 317,00;   -7,961;   -8,990;    3,952; 1,02871
 318,00;  -11,968;   -5,607;    3,109;-6,36047
 319,00;  -22,761;    3,680;   -9,431;-26,44079
 320,00;  -32,387;    1,500;  -11,993;-33,88692
 321,00;  -16,787;   -5,713;  -14,641;-11,07488
 322,00;    9,118;   -5,736;   -9,337;14,85421
 323,00;   14,931;  -11,599;  -12,332;26,53004
 324,00;   11,721;  -16,468;   -9,041;28,18811
 325,00;  -33,457;  -18,385;  -17,303;-15,07181
 326,00;  -35,024;  -12,347;  -17,301;-22,67698
 327,00;   -9,598;  -10,184;  -21,645; 0,58651
 328,00;   29,987;   -1,331;  -12,908;31,31730
 329,00;   74,678;    3,862;   -3,430;70,81559
 330,00;   57,887;    3,735;   -0,314;54,15271
 331,00;   31,261;  -11,585;   -4,815;42,84580
 332,00;  -10,986;  -10,593;  -13,531;-0,39330
 333,00;   -4,085;   -8,306;  -11,224; 4,22060
 334,00;   -7,639;   -8,754;  -13,054; 1,11461
 335,00;  -31,427;  -15,871;  -11,148;-15,55649
 336,00;  -28,398;  -11,078;  -16,724;-17,32037
 337,00;  -14,687;    2,241;  -20,406;-16,92790
 338,00;   29,828;   -0,313;  -20,465;30,14110
 339,00;    5,568;   -3,028;  -18,076; 8,59636
 340,00;  -13,411;  -11,988;  -10,130;-1,42336
 341,00;  -44,561;   -9,937;  -11,304;-34,62456
 342,00;  -36,759;  -11,980;   -9,810;-24,77945
 343,00;    7,793;   -9,535;  -11,459;17,32730
 344,00;   29,887;   -6,806;  -10,748;36,69217
 345,00;   37,188;   -3,603;  -17,759;40,79095
 346,00;   12,437;   -3,771;   -9,465;16,20802
 347,00;  -12,264;   -3,114;   -5,129;-9,15052
 348,00;  -21,709;   -7,034;   -0,034;-14,67484
 349,00;  -38,470;   -7,939;   -4,785;-30,53148
 350,00;  -43,065;  -11,944;  -25,297;-31,12131
 351,00;  -56,320;  -12,778;  -30,270;-43,54205
 352,00;  -50,947;  -17,929;  -35,804;-33,01772
 353,00;  -42,795;  -21,000;  -20,813;-21,79494
 354,00;  -26,973;  -17,882;  -16,471;-9,09082
 355,00;   -0,351;  -17,502;  -19,509;17,15174
 356,00;    1,296;  -12,858;  -20,708;14,15339
 357,00;  -16,402;  -17,033;  -27,959; 0,63078
 358,00;  -24,567;  -11,324;  -23,100;-13,24320
 359,00;  -15,220;  -13,284;  -27,166;-1,93565
 360,00;   -7,335;  -15,938;  -18,225; 8,60313
 361,00;  -13,224;  -11,722;  -22,406;-1,50256
 362,00;  -14,886;  -11,680;  -22,381;-3,20596
 363,00;    0,667;    2,713;  -27,699;-2,04624
 364,00;    0,733;   -1,324;  -24,470; 2,05786
 365,00;    8,511;   -2,771;  -18,158;11,28133
 366,00;   -0,421;  -12,064;  -19,594;11,64239
 367,00;   -7,432;  -13,029;  -19,081; 5,59725
 368,00;   -9,478;  -12,428;  -22,057; 2,94963
 369,00;   -6,406;   -7,289;  -19,889; 0,88316
 370,00;  -10,333;  -11,712;  -19,976; 1,37894
 371,00;    4,096;    0,734;  -16,505; 3,36153
 372,00;   30,682;   -3,279;  -13,749;33,96153
 373,00;   15,967;    7,630;  -10,238; 8,33741
 374,00;  -11,319;   -9,318;  -12,539;-2,00080
 375,00;  -44,087;  -13,775;  -14,919;-30,31186
 376,00;  -37,467;  -19,794;  -22,099;-17,67318
 377,00;  -35,554;  -13,984;  -25,809;-21,57063
 378,00;  -29,129;  -12,531;  -26,631;-16,59849
 379,00;  -14,947;  -13,224;  -16,338;-1,72301
 380,00;  -25,467;  -14,498;   -9,878;-10,96891
 381,00;   -8,027;  -10,547;   -5,982; 2,52084
 382,00;   -0,749;  -11,818;  -15,194;11,06950
 383,00;   40,357;  -12,851;  -17,950;53,20831
 384,00;   36,195;  -17,913;  -16,010;54,10845
 385,00;   27,312;  -25,759;   -9,216;53,07098
 386,00;    5,008;  -23,939;   -3,829;28,94655
 387,00;   12,102;  -24,727;  -10,741;36,82924
 388,00;   15,801;  -15,806;  -12,915;31,60776
 389,00;   42,497;  -17,018;  -18,199;59,51518
 390,00;   34,430;  -16,035;  -17,323;50,46483
 391,00;   41,787;  -21,444;  -19,732;63,23060
 392,00;   30,368;  -23,034;  -28,065;53,40149
 393,00;   17,787;  -10,486;  -27,099;28,27322
 394,00;   12,798;   -6,991;  -26,929;19,78963
 395,00;   -0,481;   -9,758;  -20,561; 9,27672
 396,00;   -4,592;  -20,395;  -18,156;15,80306
 397,00;    2,513;  -14,196;  -12,157;16,70841
 398,00;   -3,932;   -2,876;  -14,300;-1,05525
 399,00;   -7,017;   -8,197;   -6,960; 1,17993
 400,00;  -18,104;  -18,123;   -8,444; 0,01862
 401,00;  100,684;  -17,863;   -3,235;118,54703
 402,00;  354,856;  -14,312;  -13,910;369,16863
 403,00;  502,726;  -10,875;  -22,744;513,60091
 404,00;  403,279;  -17,370;  -31,851;420,64856
 405,00;  163,155;  -13,781;  -34,242;176,93544
 406,00;   47,710;  -13,139;  -32,010;60,84932
 407,00;   58,785;  -15,244;  -21,952;74,02900
 408,00;   84,923;  -20,907;  -12,481;105,83010
 409,00;   66,727;  -18,698;   -6,716;85,42567
 410,00;  108,289;  -13,147;  -10,089;121,43561
 411,00;  262,872;  -12,036;  -16,923;274,90861
 412,00;  572,382;  -11,949;  -23,382;584,33166
 413,00;  845,298;  -15,068;  -27,222;860,36575
 414,00; 1089,433;   -9,402;  -29,569;1098,83512
 415,00; 1260,147;  -20,359;  -21,556;1280,50515
 416,00; 1529,083;  -21,642;  -20,514;1550,72443
 417,00; 1857,467;  -26,661;  -14,374;1884,12855
 418,00; 2285,361;  -19,993;  -13,670;2305,35414
 419,00; 2806,345;  -17,845;  -13,490;2824,18936
 420,00; 3330,750;  -15,310;  -28,316;3346,06024
 421,00; 3854,331;  -19,848;  -33,188;3874,17909
 422,00; 4335,632;  -22,151;  -25,578;4357,78295
 423,00; 4819,610;  -19,568;  -13,824;4839,17806
 424,00; 5196,018;   -9,765;  -15,790;5205,78227
 425,00; 5481,094;   -9,493;  -13,554;5490,58672
 426,00; 5734,318;  -16,833;  -14,921;5751,15118
 427,00; 5912,035;  -20,291;  -14,424;5932,32683
 428,00; 6086,009;  -22,924;  -20,041;6108,93286
 429,00; 6119,913;  -16,661;  -23,019;6136,57435
 430,00; 6239,461;  -14,884;  -21,473;6254,34534
 431,00; 6288,372;  -15,269;  -22,978;6303,64070
 432,00; 6416,864;  -10,952;  -19,118;6427,81609
 433,00; 6514,975;   -7,955;  -14,550;6522,93000
 434,00; 6691,200;    0,281;  -12,922;6690,91893
 435,00; 6825,605;   -5,236;   -9,370;6830,84125
 436,00; 6987,203;   -8,633;  -13,740;6995,83643
 437,00; 7190,293;  -12,242;  -11,406;7202,53509
 438,00; 7471,492;  -16,179;  -16,253;7487,67169
 439,00; 7821,219;  -21,581;  -22,411;7842,80037
 440,00; 8213,528;  -18,060;  -26,072;8231,58834
 441,00; 8654,831;  -13,147;  -20,932;8667,97824
 442,00; 9156,894;   -8,630;  -18,857;9165,52355
 443,00; 9736,431;  -14,924;  -18,019;9751,35509
 444,00;10347,153;  -16,124;  -23,461;10363,27703
 445,00;11019,980;   -8,882;  -28,547;11028,86208
 446,00;11675,899;   -7,814;  -26,428;11683,71274
 447,00;12367,946;  -13,308;  -31,414;12381,25457
 448,00;13004,875;  -20,576;  -25,279;13025,45068
 449,00;13667,854;  -23,015;  -30,160;13690,86829
 450,00;14323,853;  -23,576;  -22,526;14347,42916
 451,00;14957,144;  -16,373;  -22,400;14973,51683
 452,00;15470,000;  -12,049;  -27,549;15482,04910
 453,00;15878,107;   -9,787;  -28,288;15887,89386
 454,00;16221,980;  -22,795;  -29,939;16244,77469
 455,00;16580,912;  -20,048;  -19,418;16600,96061
 456,00;16919,046;  -15,302;  -17,298;16934,34787
 457,00;17197,782;   -4,407;  -11,836;17202,18832
 458,00;17374,039;   -8,767;  -17,084;17382,80658
 459,00;17533,164;  -10,933;  -19,784;17544,09669
 460,00;17695,649;   -8,911;  -23,359;17704,55956
 461,00;17827,532;  -10,144;  -21,454;17837,67538
 462,00;17974,154;  -11,652;  -16,831;17985,80660
 463,00;18221,863;  -11,432;  -10,037;18233,29498
 464,00;18652,178;   -7,257;   -8,023;18659,43506
 465,00;19073,923;   -9,694;   -2,440;19083,61707
 466,00;19500,758;  -19,821;   -6,354;19520,57893
 467,00;19955,526;  -23,510;  -10,110;19979,03563
 468,00;20560,558;  -19,447;  -17,516;20580,00465
 469,00;21220,783;  -13,178;  -24,137;21233,96038
 470,00;21852,916;   -8,333;  -17,629;21861,24940
 471,00;22523,350;   -3,437;  -23,697;22526,78731
 472,00;23232,857;   -7,743;  -15,239;23240,60035
 473,00;24051,539;   -7,953;  -26,705;24059,49214
 474,00;24941,303;  -13,393;  -24,351;24954,69589
 475,00;26075,062;  -14,886;  -26,932;26089,94734
 476,00;27171,870;  -19,406;  -24,744;27191,27674
 477,00;28202,940;  -21,311;  -27,709;28224,25042
 478,00;29029,339;  -15,324;  -34,959;29044,66232
 479,00;29815,861;  -16,211;  -30,411;29832,07204
 480,00;30616,350;  -22,207;  -30,888;30638,55688
 481,00;31236,153;  -25,126;  -30,166;31261,27863
 482,00;31678,167;  -20,717;  -30,398;31698,88427
 483,00;31850,157;  -17,488;  -21,532;31867,64517
 484,00;31821,710;  -11,993;  -12,928;31833,70257
 485,00;31623,854;  -22,303;  -17,269;31646,15704
 486,00;31391,060;  -27,180;  -16,976;31418,24022
 487,00;31164,449;  -37,822;  -20,410;31202,27100
 488,00;30942,855;  -34,618;  -18,835;30977,47326
 489,00;30595,048;  -34,996;  -17,596;30630,04383
 490,00;30199,891;  -27,264;  -10,740;30227,15559
 491,00;29647,562;  -21,494;  -10,863;29669,05553
 492,00;29088,677;  -24,772;  -14,201;29113,44868
 493,00;28585,974;  -30,598;  -17,320;28616,57273
 494,00;28007,071;  -35,718;  -15,368;28042,78911
 495,00;27539,781;  -32,001;  -15,843;27571,78247
 496,00;26955,330;  -33,068;  -20,416;26988,39877
 497,00;26531,190;  -30,603;  -17,118;26561,79230
 498,00;26184,571;  -28,829;  -20,202;26213,40004
 499,00;25977,451;  -23,387;  -20,287;26000,83799
 500,00;25788,958;  -21,371;  -28,835;25810,32945
 501,00;25570,186;  -18,739;  -29,661;25588,92448
 502,00;25477,998;  -19,955;  -31,336;25497,95297
 503,00;25471,547;  -20,557;  -20,853;25492,10439
 504,00;25574,990;  -16,739;  -14,285;25591,72855
 505,00;25706,292;  -24,247;   -8,684;25730,53856
 506,00;25890,470;  -17,620;  -17,952;25908,09092
 507,00;26099,161;  -20,346;  -23,467;26119,50708
 508,00;26255,524;  -17,166;  -26,553;26272,69048
 509,00;26424,222;  -18,723;  -26,806;26442,94472
 510,00;26465,478;  -18,201;  -27,970;26483,67877
 511,00;26622,553;  -21,084;  -27,324;26643,63657
 512,00;26767,313;  -31,059;  -19,358;26798,37194
 513,00;26986,460;  -34,210;  -24,761;27020,66984
 514,00;27231,572;  -30,643;  -31,790;27262,21440
 515,00;27418,122;  -31,730;  -36,334;27449,85216
 516,00;27556,039;  -25,141;  -28,567;27581,18034
 517,00;27543,177;  -30,731;  -19,991;27573,90801
 518,00;27495,136;  -21,944;  -16,989;27517,08024
 519,00;27351,114;  -25,184;  -18,027;27376,29787
 520,00;27115,357;  -15,022;  -22,167;27130,37811
 521,00;26770,577;  -13,249;  -26,197;26783,82568
 522,00;26421,834;  -12,652;  -13,557;26434,48666
 523,00;26020,501;  -18,943;  -13,997;26039,44377
 524,00;25667,856;  -24,872;  -13,546;25692,72823
 525,00;25256,740;  -31,059;  -14,534;25287,79970
 526,00;24876,374;  -32,872;  -14,749;24909,24537
 527,00;24386,267;  -29,846;  -14,688;24416,11391
 528,00;23990,361;  -25,315;  -28,461;24015,67574
 529,00;23573,935;  -22,716;  -27,464;23596,65086
 530,00;23257,135;  -25,120;  -31,284;23282,25464
 531,00;22951,142;  -24,443;  -29,444;22975,58430
 532,00;22760,369;  -25,012;  -27,164;22785,38110
 533,00;22609,587;  -27,081;  -27,607;22636,66752
 534,00;22520,502;  -27,938;  -22,262;22548,44009
 535,00;22442,973;  -34,884;  -20,066;22477,85656
 536,00;22419,111;  -33,331;  -20,579;22452,44125
 537,00;22461,473;  -34,704;  -21,493;22496,17724
 538,00;22511,793;  -25,192;  -29,751;22536,98467
 539,00;22557,197;  -22,637;  -28,515;22579,83419
 540,00;22599,212;  -17,413;  -32,389;22616,62560
 541,00;22715,926;  -16,309;  -28,559;22732,23432
 542,00;22915,922;  -16,828;  -30,950;22932,75017
 543,00;23209,868;  -17,345;  -27,186;23227,21318
 544,00;23585,340;  -19,116;  -32,439;23604,45582
 545,00;23996,070;  -21,713;  -24,127;24017,78254
 546,00;24462,076;  -25,908;  -35,952;24487,98416
 547,00;24916,076;  -33,064;  -27,448;24949,14038
 548,00;25486,254;  -34,016;  -31,184;25520,27034
 549,00;25989,755;  -27,323;  -24,200;26017,07816
 550,00;26468,228;  -21,582;  -33,727;26489,80990
 551,00;26799,460;  -22,118;  -29,965;26821,57752
 552,00;27071,858;  -25,963;  -23,309;27097,82066
 553,00;27251,564;  -27,737;  -15,436;27279,30128
 554,00;27463,083;  -21,963;  -20,518;27485,04635
 555,00;27517,434;  -16,798;  -31,065;27534,23162
 556,00;27472,916;   -9,075;  -37,410;27481,99094
 557,00;27270,659;  -15,314;  -35,811;27285,97251
 558,00;27186,192;  -14,559;  -27,069;27200,75102
 559,00;27090,711;  -17,920;  -27,096;27108,63083
 560,00;26862,722;  -17,173;  -32,311;26879,89594
 561,00;26543,384;  -17,992;  -30,024;26561,37609
 562,00;26229,821;  -23,499;  -23,655;26253,31987
 563,00;26042,046;  -26,252;  -20,311;26068,29813
 564,00;25738,908;  -30,040;  -26,989;25768,94812
 565,00;25347,619;  -22,800;  -23,153;25370,41813
 566,00;24914,992;  -17,687;  -23,159;24932,67887
 567,00;24591,107;  -18,277;  -22,617;24609,38434
 568,00;24217,291;  -12,249;  -26,664;24229,53979
 569,00;23807,452;  -19,029;  -27,523;23826,48167
 570,00;23381,555;  -21,924;  -24,785;23403,47833
 571,00;22902,935;  -23,973;  -30,554;22926,90768
 572,00;22464,716;  -20,213;  -35,347;22484,92914
 573,00;22016,564;  -15,965;  -28,435;22032,52925
 574,00;21659,254;  -25,109;  -25,314;21684,36254
 575,00;21201,275;  -28,104;  -16,825;21229,37970
 576,00;20805,895;  -32,946;  -27,670;20838,84141
 577,00;20413,076;  -26,641;  -28,921;20439,71716
 578,00;20086,962;  -21,822;  -30,850;20108,78384
 579,00;19741,786;  -17,228;  -30,452;19759,01440
 580,00;19502,865;  -16,543;  -27,498;19519,40819
 581,00;19271,432;  -21,190;  -30,729;19292,62207
 582,00;19087,959;  -19,772;  -25,308;19107,73068
 583,00;18932,055;  -18,577;  -33,420;18950,63231
 584,00;18843,147;  -14,701;  -35,653;18857,84842
 585,00;18724,085;  -14,234;  -39,987;18738,31984
 586,00;18558,442;  -18,663;  -39,789;18577,10487
 587,00;18329,758;  -28,149;  -40,804;18357,90746
 588,00;18168,348;  -25,325;  -39,500;18193,67276
 589,00;17952,209;  -21,504;  -25,131;17973,71275
 590,00;17815,001;  -15,034;  -20,366;17830,03512
 591,00;17566,948;  -20,482;  -31,267;17587,42992
 592,00;17363,747;  -27,109;  -38,593;17390,85651
 593,00;17044,361;  -17,586;  -36,006;17061,94726
 594,00;16772,628;  -16,428;  -26,963;16789,05631
 595,00;16499,278;  -15,538;  -21,423;16514,81627
 596,00;16249,621;  -26,490;  -20,447;16276,11123
 597,00;15930,804;  -27,530;  -15,794;15958,33350
 598,00;15609,326;  -21,848;  -22,806;15631,17424
 599,00;15272,707;  -18,162;  -28,272;15290,86887
 600,00;14907,289;  -17,893;  -38,002;14925,18261
 601,00;14497,635;  -19,228;  -29,693;14516,86248
 602,00;14149,435;  -15,728;  -29,199;14165,16327
 603,00;13778,723;  -18,193;  -28,435;13796,91590
 604,00;13311,511;  -24,223;  -37,164;13335,73363
 605,00;12801,832;  -32,867;  -38,509;12834,69909
 606,00;12321,680;  -34,645;  -32,228;12356,32539
 607,00;11924,300;  -36,301;  -28,903;11960,60129
 608,00;11739,656;  -31,895;  -39,120;11771,55097
 609,00;11781,680;  -31,068;  -42,997;11812,74847
 610,00;11865,716;  -28,437;  -35,264;11894,15327
 611,00;11823,132;  -30,147;  -22,010;11853,27820
 612,00;11584,067;  -28,904;  -24,230;11612,97081
 613,00;11288,029;  -37,836;  -35,583;11325,86568
 614,00;10933,146;  -39,127;  -42,310;10972,27355
 615,00;10581,645;  -39,651;  -42,700;10621,29596
 616,00;10267,025;  -28,930;  -39,862;10295,95538
 617,00; 9926,622;  -26,922;  -41,176;9953,54331
 618,00; 9685,290;  -23,931;  -40,073;9709,22086
 619,00; 9366,174;  -29,411;  -37,382;9395,58493
 620,00; 9070,387;  -23,957;  -35,917;9094,34427
 621,00; 8715,065;  -27,703;  -36,695;8742,76831
 622,00; 8453,043;  -21,866;  -39,158;8474,90898
 623,00; 8191,096;  -28,609;  -34,792;8219,70524
 624,00; 8006,661;  -27,618;  -33,748;8034,27863
 625,00; 7796,897;  -28,638;  -33,301;7825,53481
 626,00; 7628,721;  -24,481;  -34,400;7653,20245
 627,00; 7446,948;  -24,481;  -36,771;7471,42869
 628,00; 7286,461;  -29,029;  -36,159;7315,49022
 629,00; 7094,350;  -36,532;  -36,892;7130,88211
 630,00; 6918,956;  -34,349;  -34,096;6953,30497
 631,00; 6780,539;  -32,674;  -28,013;6813,21287
 632,00; 6668,323;  -22,678;  -23,586;6691,00083
 633,00; 6554,626;  -23,265;  -29,356;6577,89160
 634,00; 6391,877;  -22,668;  -37,608;6414,54452
 635,00; 6264,618;  -24,118;  -41,021;6288,73670
 636,00; 6145,841;  -25,942;  -32,805;6171,78280
 637,00; 6094,664;  -26,658;  -31,877;6121,32181
 638,00; 6018,960;  -25,838;  -28,179;6044,79822
 639,00; 5944,663;  -22,706;  -25,158;5967,36912
 640,00; 5893,341;  -17,699;  -18,411;5911,04008
 641,00; 5794,599;  -11,310;  -19,229;5805,90886
 642,00; 5733,240;  -20,899;  -17,471;5754,13879
 643,00; 5634,156;  -25,275;  -24,203;5659,43145
 644,00; 5588,737;  -30,274;  -26,331;5619,01150
 645,00; 5469,382;  -27,887;  -33,393;5497,26934
 646,00; 5400,033;  -30,389;  -34,251;5430,42157
 647,00; 5362,898;  -34,464;  -30,831;5397,36270
 648,00; 5373,217;  -34,941;  -29,356;5408,15817
 649,00; 5353,682;  -30,370;  -22,493;5384,05149
 650,00; 5278,752;  -28,964;  -29,535;5307,71597
 651,00; 5194,138;  -23,219;  -29,040;5217,35653
 652,00; 5076,964;  -22,864;  -38,279;5099,82747
 653,00; 4892,082;  -27,598;  -35,972;4919,67996
 654,00; 4712,708;  -30,489;  -42,199;4743,19623
 655,00; 4547,876;  -35,581;  -39,776;4583,45715
 656,00; 4449,450;  -25,848;  -37,964;4475,29777
 657,00; 4401,841;  -27,878;  -29,428;4429,71901
 658,00; 4346,929;  -27,282;  -36,693;4374,21115
 659,00; 4300,588;  -34,612;  -37,205;4335,20011
 660,00; 4178,205;  -32,647;  -45,190;4210,85201
 661,00; 4076,869;  -29,474;  -45,207;4106,34367
 662,00; 3991,545;  -26,237;  -44,715;4017,78281
 663,00; 3935,104;  -25,109;  -37,778;3960,21231
 664,00; 3924,672;  -31,344;  -31,050;3956,01570
 665,00; 3826,478;  -29,698;  -33,996;3856,17611
 666,00; 3760,101;  -28,625;  -33,015;3788,72547
 667,00; 3667,405;  -27,534;  -26,523;3694,93906
 668,00; 3615,184;  -35,782;  -17,335;3650,96604
 669,00; 3537,564;  -33,250;  -12,200;3570,81355
 670,00; 3466,166;  -23,855;  -25,302;3490,02145
 671,00; 3378,185;  -22,098;  -29,808;3400,28292
 672,00; 3326,402;  -36,457;  -30,879;3362,85847
 673,00; 3244,383;  -38,979;  -22,570;3283,36219
 674,00; 3189,783;  -35,758;  -27,350;3225,54064
 675,00; 3078,836;  -26,567;  -33,317;3105,40322
 676,00; 3045,634;  -32,208;  -39,543;3077,84249
 677,00; 3003,744;  -30,525;  -35,752;3034,26934
 678,00; 2964,580;  -28,475;  -34,551;2993,05537
 679,00; 2930,033;  -33,061;  -22,808;2963,09432
 680,00; 2857,029;  -27,904;  -23,555;2884,93280
 681,00; 2825,957;  -24,716;  -23,704;2850,67318
 682,00; 2779,075;  -16,334;  -35,545;2795,40874
 683,00; 2770,857;  -30,108;  -39,139;2800,96557
 684,00; 2733,463;  -40,995;  -35,918;2774,45773
 685,00; 2705,290;  -47,015;  -27,345;2752,30470
 686,00; 2658,035;  -40,952;  -25,955;2698,98726
 687,00; 2609,208;  -36,169;  -25,806;2645,37682
 688,00; 2545,740;  -42,173;  -24,608;2587,91254
 689,00; 2504,116;  -45,597;  -25,571;2549,71293
 690,00; 2442,553;  -48,192;  -23,833;2490,74541
 691,00; 2385,962;  -39,150;  -27,423;2425,11164
 692,00; 2328,919;  -32,662;  -25,344;2361,58156
 693,00; 2279,884;  -27,778;  -31,203;2307,66212
 694,00; 2216,462;  -29,418;  -37,053;2245,87929
 695,00; 2145,072;  -34,283;  -47,225;2179,35525
 696,00; 2059,917;  -34,675;  -41,958;2094,59180
 697,00; 2006,092;  -29,420;  -38,633;2035,51236
 698,00; 1968,730;  -23,251;  -31,469;1991,98094
 699,00; 1970,836;  -24,431;  -32,946;1995,26722
 700,00; 1907,918;  -29,689;  -31,847;1937,60689
 701,00; 1836,604;  -33,351;  -32,190;1869,95500
 702,00; 1752,357;  -43,992;  -29,374;1796,34822
 703,00; 1718,192;  -43,290;  -35,593;1761,48277
 704,00; 1711,655;  -41,705;  -38,797;1753,36039
 705,00; 1680,084;  -28,595;  -42,659;1708,67909
 706,00; 1669,426;  -20,882;  -38,615;1690,30731
 707,00; 1604,309;  -18,217;  -30,350;1622,52542
 708,00; 1578,437;  -29,198;  -25,122;1607,63520
 709,00; 1502,651;  -35,703;  -28,001;1538,35438
 710,00; 1468,513;  -44,801;  -31,917;1513,31382
 711,00; 1399,858;  -39,029;  -35,111;1438,88739
 712,00; 1382,185;  -36,706;  -36,576;1418,89113
 713,00; 1375,580;  -22,373;  -37,555;1397,95303
 714,00; 1359,628;  -27,790;  -39,057;1387,41808
 715,00; 1335,135;  -34,720;  -22,329;1369,85580
 716,00; 1293,978;  -42,314;  -27,036;1336,29196
 717,00; 1286,448;  -41,221;  -27,945;1327,66924
 718,00; 1250,278;  -34,849;  -35,104;1285,12636
 719,00; 1166,730;  -30,938;  -31,251;1197,66826
 720,00; 1109,552;  -24,990;  -37,026;1134,54178
 721,00; 1093,095;  -24,680;  -38,703;1117,77499
 722,00; 1106,423;  -24,229;  -38,065;1130,65201
 723,00; 1076,847;  -22,861;  -35,405;1099,70826
 724,00; 1027,412;  -24,009;  -37,864;1051,42169
 725,00;  972,779;  -29,670;  -40,347;1002,44875
 726,00;  928,899;  -36,839;  -44,750;965,73816
 727,00;  909,538;  -38,245;  -43,092;947,78239
 728,00;  878,920;  -45,005;  -33,997;923,92485
 729,00;  860,167;  -44,517;  -26,982;904,68355
 730,00;  828,841;  -42,972;  -33,814;871,81286
 731,00;  774,331;  -34,359;  -35,574;808,68962
 732,00;  742,986;  -35,089;  -42,904;778,07468
 733,00;  708,805;  -41,765;  -43,078;750,56988
 734,00;  711,672;  -45,957;  -50,913;757,62908
 735,00;  673,366;  -44,752;  -38,312;718,11705
 736,00;  675,399;  -34,897;  -35,041;710,29578
 737,00;  644,740;  -32,036;  -40,426;676,77537
 738,00;  642,578;  -38,562;  -50,413;681,14046
 739,00;  587,070;  -44,433;  -40,197;631,50349
 740,00;  574,568;  -37,431;  -35,198;611,99871
 741,00;  543,014;  -35,053;  -35,379;578,06713
 742,00;  557,182;  -34,545;  -40,624;591,72670
 743,00;  511,887;  -36,357;  -48,087;548,24423
 744,00;  487,761;  -34,507;  -51,969;522,26856
 745,00;  449,335;  -29,092;  -45,977;478,42705
 746,00;  438,466;  -33,055;  -42,490;471,52125
 747,00;  434,787;  -28,442;  -37,436;463,22839
 748,00;  423,428;  -33,899;  -42,025;457,32784
 749,00;  411,882;  -32,202;  -39,845;444,08481
 750,00;  400,623;  -38,248;  -40,135;438,87000
 751,00;  394,762;  -39,853;  -35,417;434,61507
 752,00;  363,009;  -43,805;  -39,113;406,81365
 753,00;  328,349;  -52,130;  -35,670;380,47858
 754,00;  317,597;  -51,673;  -36,868;369,27015
 755,00;  322,927;  -46,020;  -36,873;368,94684
 756,00;  325,006;  -31,506;  -42,553;356,51211
 757,00;  323,454;  -30,460;  -41,894;353,91405
 758,00;  305,064;  -31,333;  -36,874;336,39671
 759,00;  294,332;  -30,317;  -33,935;324,64909
 760,00;  273,444;  -27,102;  -33,640;300,54544
 761,00;  260,185;  -26,305;  -36,846;286,48942
 762,00;  235,318;  -31,769;  -44,637;267,08697
 763,00;  214,329;  -41,917;  -45,696;256,24606
 764,00;  207,674;  -51,631;  -38,307;259,30514
 765,00;  204,200;  -50,635;  -29,613;254,83494
 766,00;  190,782;  -43,088;  -28,221;233,87019
 767,00;  174,275;  -37,607;  -30,934;211,88180
 768,00;  160,935;  -34,750;  -36,782;195,68491
 769,00;  155,985;  -37,775;  -44,069;193,76018
 770,00;  148,831;  -34,767;  -42,252;183,59789
 771,00;  136,869;  -35,061;  -43,973;171,92938
 772,00;  127,777;  -28,576;  -34,104;156,35298
 773,00;  139,917;  -34,602;  -33,306;174,51864
 774,00;  148,239;  -37,285;  -32,999;185,52494
 775,00;  139,291;  -41,375;  -37,177;180,66648
 776,00;  109,171;  -39,415;  -47,439;148,58604
 777,00;  110,388;  -37,762;  -57,278;148,14963
 778,00;  113,980;  -34,549;  -51,672;148,52880
 779,00;  106,722;  -38,065;  -48,836;144,78700
 780,00;   74,037;  -30,790;  -38,600;104,82715
 781,00;   91,443;  -28,569;  -39,289;120,01209
 782,00;  102,447;  -27,902;  -37,733;130,34906
 783,00;  106,332;  -40,386;  -32,548;146,71820
 784,00;   80,460;  -40,333;  -35,381;120,79237
 785,00;  105,291;  -36,792;  -33,706;142,08233
 786,00;  106,438;  -37,675;  -37,668;144,11256
 787,00;   96,490;  -42,589;  -35,857;139,07867
 788,00;   91,118;  -42,513;  -42,827;133,63128
 789,00;   78,402;  -32,643;  -40,841;111,04521
 790,00;   39,334;  -29,379;  -42,816;68,71254
 791,00;    9,947;  -34,805;  -36,527;44,75197
 792,00;    2,314;  -42,329;  -34,767;44,64260
 793,00;   44,875;  -47,852;  -36,520;92,72749
 794,00;   78,393;  -48,535;  -32,592;126,92799
 795,00;   97,098;  -43,208;  -31,578;140,30605
 796,00;   60,998;  -36,161;  -32,537;97,15866
 797,00;   35,586;  -37,461;  -44,359;73,04646
 798,00;   24,631;  -43,153;  -43,999;67,78424
 799,00;   23,777;  -38,679;  -44,076;62,45656
 800,00;   34,891;  -32,015;  -38,508;66,90582
 801,00;   22,792;  -33,985;  -40,760;56,77697
 802,00;   36,684;  -36,549;  -43,132;73,23363
 803,00;   32,626;  -31,003;  -45,406;63,62967
 804,00;   57,438;  -26,311;  -45,985;83,74875
 805,00;   61,709;  -32,520;  -37,048;94,22931
 806,00;   56,636;  -43,061;  -32,347;99,69689
 807,00;   39,144;  -44,699;  -32,114;83,84371
 808,00;   20,319;  -38,048;  -40,039;58,36772
 809,00;   19,120;  -35,588;  -41,923;54,70878
 810,00;    7,355;  -38,101;  -40,897;45,45670
 811,00;   -0,722;  -36,827;  -44,905;36,10433
 812,00;    5,381;  -33,644;  -46,035;39,02501
 813,00;    1,962;  -38,099;  -53,024;40,06138
 814,00;   24,539;  -46,542;  -50,410;71,08126
 815,00;   10,790;  -45,868;  -48,230;56,65785
 816,00;   19,430;  -42,787;  -44,915;62,21734
 817,00;    6,327;  -38,174;  -42,167;44,50079
 818,00;   10,672;  -42,181;  -37,066;52,85341
 819,00;    3,186;  -45,391;  -29,909;48,57743
 820,00;   16,152;  -41,538;  -27,357;57,68937
 821,00;   24,119;  -33,950;  -33,165;58,06836
 822,00;    7,377;  -31,558;  -42,362;38,93521
 823,00;   -7,927;  -39,921;  -50,660;31,99400
 824,00;  -23,439;  -42,837;  -49,374;19,39788
 825,00;  -33,369;  -43,791;  -49,162;10,42213
 826,00;  -34,110;  -38,770;  -53,138; 4,66012
 827,00;  -34,891;  -39,694;  -56,271; 4,80250
 828,00;   -6,034;  -46,435;  -52,276;40,40156
 829,00;  -10,020;  -49,649;  -45,114;39,62891
 830,00;   -4,320;  -43,210;  -47,896;38,89008
 831,00;  -47,418;  -34,258;  -53,614;-13,15971
 832,00;  -47,338;  -39,891;  -53,246;-7,44653
 833,00;  -41,319;  -49,502;  -44,299; 8,18295
 834,00;  -19,277;  -50,023;  -37,292;30,74581
 835,00;  -19,810;  -42,080;  -33,251;22,27018
 836,00;  -32,956;  -34,383;  -34,010; 1,42748
 837,00;  -52,146;  -36,045;  -33,786;-16,10101
 838,00;  -36,902;  -38,992;  -50,399; 2,08953
 839,00;  -35,077;  -36,326;  -54,840; 1,24840
 840,00;  -25,526;  -29,675;  -59,101; 4,14967
 841,00;  -40,663;  -25,021;  -45,914;-15,64234
 842,00;  -30,050;  -28,532;  -41,953;-1,51793
 843,00;  -22,306;  -38,110;  -36,488;15,80450
 844,00;  -16,486;  -45,734;  -38,590;29,24797
 845,00;  -49,928;  -43,217;  -36,307;-6,71160
 846,00;  -60,850;  -30,061;  -45,032;-30,78969
 847,00;  -60,047;  -23,769;  -45,054;-36,27820
 848,00;  -57,799;  -22,506;  -47,717;-35,29299
 849,00;  -65,846;  -28,514;  -48,627;-37,33172
 850,00;  -65,101;  -30,182;  -50,921;-34,91932

